# Step     T (K)     E_KS (eV)    E_tot (eV)   Vol (A^3)    P (kBar)
     1  13797.49    -900.40460    -895.05442    1000.000       5.299
     2  13036.82    -900.13222    -895.07700    1000.000       6.434
     3  11612.08    -899.58643    -895.08368    1000.000       7.753
     4   9198.49    -898.64644    -895.07959    1000.000      10.218
     5   5979.63    -897.36124    -895.04255    1000.000      12.762
     6   3566.59    -896.37689    -894.99389    1000.000      13.477
     7   3625.62    -896.42692    -895.02103    1000.000      11.947
     8   5470.54    -897.21303    -895.09174    1000.000       9.406
     9   7109.01    -897.86231    -895.10569    1000.000       7.359
    10   7861.66    -898.13535    -895.08687    1000.000       5.831
    11   8174.97    -898.24088    -895.07091    1000.000       4.721
    12   8575.97    -898.38442    -895.05896    1000.000       3.937
    13   9408.97    -898.69933    -895.05087    1000.000       3.473
    14  10850.48    -899.25897    -895.05154    1000.000       3.448
    15  12732.93    -900.01564    -895.07826    1000.000       4.136
    16  13922.41    -900.54069    -895.14206    1000.000       5.995
    17  13679.13    -900.26006    -894.95578    1000.000       8.084
    18  14002.04    -900.58191    -895.15241    1000.000       5.895
    19  13415.79    -900.30947    -895.10729    1000.000       3.511
    20  11772.97    -899.63368    -895.06854    1000.000       1.843
    21  10509.59    -899.13501    -895.05975    1000.000       0.391
    22  10090.99    -898.97105    -895.05812    1000.000      -0.530
    23  10605.91    -899.17179    -895.05919    1000.000      -0.808
    24  11961.30    -899.71108    -895.07291    1000.000      -0.240
    25  13477.61    -900.35298    -895.12684    1000.000       1.518
    26  13554.74    -900.37051    -895.11446    1000.000       4.508
    27  13474.74    -900.25795    -895.03292    1000.000       5.124
    28  13728.67    -900.45060    -895.12710    1000.000       2.733
    29  12374.41    -899.86097    -895.06261    1000.000       1.497
    30  10867.00    -899.25665    -895.04281    1000.000       0.558
    31  10133.29    -898.96929    -895.03996    1000.000       0.049
    32  10352.19    -899.05472    -895.04051    1000.000       0.158
    33  11488.25    -899.50183    -895.04709    1000.000       0.984
    34  13175.16    -900.18983    -895.08097    1000.000       2.765
    35  14046.44    -900.59126    -895.14454    1000.000       5.820
    36  13674.53    -900.22908    -894.92658    1000.000       8.585
    37  14010.65    -900.57895    -895.14611    1000.000       6.660
    38  13178.69    -900.19495    -895.08472    1000.000       4.921
    39  11509.98    -899.51287    -895.04970    1000.000       3.633
    40  10396.86    -899.07455    -895.04301    1000.000       2.452
    41  10213.29    -899.00319    -895.04283    1000.000       1.681
    42  10984.19    -899.30525    -895.04597    1000.000       1.459
    43  12524.42    -899.92164    -895.06511    1000.000       2.014
    44  13930.66    -900.53005    -895.12822    1000.000       3.748
    45  13711.02    -900.36361    -895.04696    1000.000       6.406
    46  13732.01    -900.43014    -895.10535    1000.000       5.564
    47  13643.90    -900.41844    -895.12781    1000.000       2.855
    48  12060.87    -899.74904    -895.07226    1000.000       1.235
    49  10586.59    -899.16248    -895.05737    1000.000      -0.148
    50   9952.33    -898.91455    -895.05539    1000.000      -1.027
    51  10287.47    -899.04540    -895.05628    1000.000      -1.242
    52  11531.50    -899.53692    -895.06541    1000.000      -0.665
    53  13202.86    -900.22688    -895.10727    1000.000       1.012
    54  13785.78    -900.49618    -895.15054    1000.000       4.028
    55  13566.43    -900.20940    -894.94882    1000.000       6.059
    56  13992.77    -900.55993    -895.13402    1000.000       3.933
    57  12938.65    -900.08332    -895.06617    1000.000       2.652
    58  11322.36    -899.42868    -895.03826    1000.000       1.800
    59  10343.35    -899.04420    -895.03341    1000.000       1.259
    60  10286.67    -899.02188    -895.03307    1000.000       1.248
    61  11166.97    -899.36683    -895.03667    1000.000       1.837
    62  12761.82    -900.00890    -895.06031    1000.000       3.210
    63  14009.66    -900.56059    -895.12813    1000.000       5.714
    64  13674.33    -900.28720    -894.98478    1000.000       8.717
    65  13864.72    -900.51689    -895.14063    1000.000       7.394
    66  13561.36    -900.37891    -895.12029    1000.000       4.969
    67  11958.84    -899.71004    -895.07282    1000.000       3.352
    68  10638.28    -899.18679    -895.06164    1000.000       1.847
    69  10177.59    -899.00699    -895.06048    1000.000       0.783
    70  10662.14    -899.19640    -895.06199    1000.000       0.326
    71  11990.86    -899.72428    -895.07464    1000.000       0.652
    72  13525.68    -900.37076    -895.12597    1000.000       2.110
    73  13665.30    -900.42840    -895.12947    1000.000       4.810
    74  13487.10    -900.24185    -895.01202    1000.000       5.447
    75  13729.88    -900.45188    -895.12791    1000.000       2.767
    76  12369.10    -899.85752    -895.06122    1000.000       1.213
    77  10785.82    -899.22187    -895.03951    1000.000      -0.015
    78   9975.91    -898.90459    -895.03628    1000.000      -0.812
    79  10141.19    -898.96905    -895.03665    1000.000      -0.966
    80  11256.04    -899.40734    -895.04264    1000.000      -0.366
    81  12980.75    -900.10802    -895.07454    1000.000       1.239
    82  13990.80    -900.56575    -895.14061    1000.000       4.198
    83  13653.64    -900.22346    -894.92905    1000.000       7.192
    84  14005.59    -900.58041    -895.14954    1000.000       5.588
    85  13278.32    -900.24141    -895.09254    1000.000       4.092
    86  11599.06    -899.55265    -895.05494    1000.000       3.198
    87  10420.14    -899.08773    -895.04716    1000.000       2.451
    88  10162.92    -898.98724    -895.04641    1000.000       2.113
    89  10875.61    -899.26609    -895.04891    1000.000       2.271
    90  12397.14    -899.87417    -895.06700    1000.000       3.111
    91  13863.21    -900.50470    -895.12903    1000.000       5.006
    92  13735.11    -900.38755    -895.06156    1000.000       7.772
    93  13780.06    -900.43965    -895.09622    1000.000       7.128
    94  13786.32    -900.47589    -895.13004    1000.000       4.326
    95  12246.73    -899.82140    -895.07255    1000.000       2.558
    96  10753.33    -899.22664    -895.05688    1000.000       0.978
    97  10075.17    -898.96139    -895.05459    1000.000      -0.145
    98  10355.86    -899.07098    -895.05534    1000.000      -0.632
    99  11542.18    -899.53987    -895.06421    1000.000      -0.338
   100  13157.81    -900.20815    -895.10601    1000.000       1.045
